Wavelength (nm);Optical Density;% Transmission
200;6.0913845;8.10243E-05
201;6.080239;8.31306E-05
202;6.055791778;8.79444E-05
203;6.041116667;9.09669E-05
204;6.032127556;9.28694E-05
205;6.037457667;9.17365E-05
206;6.028850111;9.35729E-05
207;6.040395;9.11182E-05
208;5.991075;0.000102076
209;6.05067;8.89877E-05
210;6.029349;9.34654E-05
211;5.949819;0.000112249
212;6.044455;9.02703E-05
213;5.984951;0.000103526
214;5.966572;0.000108001
215;6.007995;9.81759E-05
216;6.022648;9.49187E-05
217;6.048516;8.94302E-05
218;5.974533;0.000106039
219;6.027645;9.38329E-05
220;5.984107;0.000103727
221;5.97927;0.000104889
222;5.965705;0.000108217
223;5.988721;0.000102631
224;5.916082;0.000121316
225;5.924354;0.000119027
226;5.89734;0.000126666
227;5.913053;0.000122165
228;5.921337;0.000119857
229;5.981444;0.000104365
230;6.029962;9.33336E-05
231;5.959823;0.000109693
232;5.9309;0.000117247
233;5.91116;0.000122699
234;5.919044;0.000120491
235;5.939366;0.000114983
236;5.923342;0.000119305
237;5.931353;0.000117124
238;5.956427;0.000110554
239;5.978627;0.000105044
240;5.978512;0.000105072
241;5.900055;0.000125877
242;5.903921;0.000124761
243;5.969542;0.000107265
244;5.927427;0.000118188
245;5.908008;0.000123592
246;5.915715;0.000121419
247;5.956651;0.000110497
248;5.944146;0.000113724
249;5.908345;0.000123497
250;5.878977;0.000132137
251;5.928511;0.000117893
252;5.949268;0.000112391
253;5.925049;0.000118837
254;5.921296;0.000119868
255;5.937377;0.000115511
256;5.925334;0.000118759
257;5.913829;0.000121947
258;5.884143;0.000130574
259;5.895197;0.000127293
260;5.942165;0.000114244
261;5.925954;0.000118589
262;5.895015;0.000127346
263;5.873224;0.000133899
264;5.883982;0.000130623
265;5.91386;0.000121938
266;5.906023;0.000124159
267;5.887143;0.000129675
268;5.85188;0.000140644
269;5.855224;0.000139565
270;5.901494;0.00012546
271;5.928786;0.000117819
272;5.917044;0.000121048
273;5.91302;0.000122174
274;5.886653;0.000129822
275;5.905398;0.000124337
276;5.945339;0.000113413
277;5.971246;0.000106845
278;5.994109;0.000101366
279;5.94589;0.000113269
280;5.954605;0.000111018
281;5.989982;0.000102334
282;5.950407;0.000112097
283;5.954962;0.000110927
284;5.926325;0.000118488
285;5.891906;0.000128261
286;5.907345;0.000123781
287;5.935042;0.000116134
288;5.915173;0.00012157
289;5.885354;0.00013021
290;5.854239;0.000139882
291;5.904399;0.000124624
292;5.978421;0.000105094
293;5.956878;0.000110439
294;5.928104;0.000118004
295;5.901458;0.000125471
296;5.92081;0.000120002
297;5.945048;0.000113489
298;5.928942;0.000117776
299;5.917362;0.000120959
300;5.877252;0.000132662
301;5.877353;0.000132632
302;5.954434;0.000111062
303;5.976272;0.000105616
304;5.963458;0.000108778
305;5.959421;0.000109794
306;5.919028;0.000120496
307;5.915354;0.00012152
308;5.915396;0.000121508
309;5.854678;0.00013974
310;5.886182;0.000129962
311;5.916067;0.00012132
312;5.901191;0.000125548
313;5.882977;0.000130925
314;5.849111;0.000141543
315;5.862851;0.000137135
316;5.880371;0.000131713
317;5.902328;0.00012522
318;5.933245;0.000116615
319;5.971837;0.0001067
320;5.951722;0.000111758
321;5.943562;0.000113878
322;5.923724;0.0001192
323;5.96043;0.000109539
324;5.940105;0.000114788
325;5.956859;0.000110444
326;5.969605;0.000107249
327;5.902197;0.000125257
328;5.936856;0.00011565
329;5.983205;0.000103943
330;5.987984;0.000102805
331;6.02548;9.43018E-05
332;5.922003;0.000119673
333;5.949789;0.000112256
334;5.975266;0.000105861
335;5.99333;0.000101548
336;5.984326;0.000103675
337;5.989133;0.000102534
338;5.950825;0.000111989
339;5.946611;0.000113081
340;5.963417;0.000108789
341;5.967828;0.000107689
342;5.959562;0.000109758
343;6.003683;9.91555E-05
344;5.972904;0.000106438
345;5.931743;0.000117019
346;5.964368;0.000108551
347;5.916666;0.000121153
348;5.920505;0.000120087
349;5.982194;0.000104185
350;5.982579;0.000104093
351;5.991483;0.00010198
352;5.957196;0.000110358
353;5.957376;0.000110312
354;5.925687;0.000118662
355;5.945433;0.000113388
356;5.929756;0.000117556
357;5.95809;0.000110131
358;5.954142;0.000111137
359;5.9544;0.000111071
360;5.922861;0.000119437
361;5.843144;0.000143501
362;5.946607;0.000113082
363;5.942838;0.000114068
364;5.931277;0.000117145
365;5.897678;0.000126567
366;5.887394;0.0001296
367;5.968143;0.000107611
368;5.912712;0.000122261
369;5.89826;0.000126398
370;5.881151;0.000131477
371;5.888243;0.000129347
372;5.87779;0.000132498
373;5.82685;0.000148988
374;5.803042;0.000157383
375;5.759518;0.000173973
376;5.786413;0.000163526
377;5.762609;0.000172739
378;5.842354;0.000143763
379;5.926213;0.000118519
380;5.970543;0.000107018
381;5.930268;0.000117417
382;5.915289;0.000121538
383;5.958375;0.000110059
384;6.001815;9.9583E-05
385;5.938886;0.00011511
386;5.963164;0.000108852
387;5.94729;0.000112904
388;5.931622;0.000117052
389;5.924225;0.000119063
390;5.943661;0.000113852
391;5.989847;0.000102365
392;5.981182;0.000104428
393;6.008038;9.81662E-05
394;5.932836;0.000116725
395;5.940985;0.000114555
396;5.965087;0.000108371
397;5.941147;0.000114513
398;5.949285;0.000112387
399;5.91517;0.000121571
400;5.937894;0.000115373
401;5.966111;0.000108116
402;5.962176;0.0001091
403;6.005594;9.87202E-05
404;5.996759;0.000100749
405;5.939067;0.000115062
406;5.923844;0.000119167
407;5.97142;0.000106802
408;6.04917;8.92956E-05
409;6.059151;8.72668E-05
410;5.955602;0.000110764
411;5.955956;0.000110674
412;5.97679;0.00010549
413;5.96856;0.000107508
414;5.972698;0.000106488
415;5.918306;0.000120696
416;5.956775;0.000110465
417;5.863499;0.000136931
418;5.977902;0.00010522
419;5.978008;0.000105194
420;5.94198;0.000114293
421;5.919464;0.000120375
422;5.978455;0.000105086
423;6.00957;9.78205E-05
424;5.98754;0.000102911
425;5.992094;0.000101837
426;5.927699;0.000118114
427;5.975194;0.000105878
428;5.939681;0.0001149
429;6.033839;9.25041E-05
430;5.932286;0.000116873
431;5.951707;0.000111762
432;5.936451;0.000115757
433;6.011285;9.7435E-05
434;5.972567;0.00010652
435;5.960572;0.000109503
436;5.948758;0.000112523
437;5.97736;0.000105351
438;5.949153;0.000112421
439;5.957166;0.000110366
440;5.930177;0.000117442
441;5.96175;0.000109207
442;5.868059;0.000135501
443;5.930982;0.000117224
444;5.978593;0.000105053
445;5.970391;0.000107056
446;5.983153;0.000103955
447;5.950925;0.000111963
448;5.967008;0.000107893
449;5.963073;0.000108875
450;5.959312;0.000109822
451;6.047349;8.96708E-05
452;5.984336;0.000103673
453;5.959878;0.000109679
454;5.956275;0.000110592
455;5.948405;0.000112615
456;5.968471;0.00010753
457;6.029353;9.34646E-05
458;6.020366;9.54188E-05
459;5.994161;0.000101354
460;5.941671;0.000114374
461;5.973557;0.000106278
462;5.977831;0.000105237
463;6.090642;8.1163E-05
464;5.969482;0.00010728
465;5.916403;0.000121226
466;5.954015;0.000111169
467;5.970141;0.000107117
468;6.031235;9.30604E-05
469;5.928078;0.000118011
470;6.017686;9.60095E-05
471;5.995877;0.000100954
472;5.921103;0.000119921
473;5.906874;0.000123916
474;5.947375;0.000112882
475;5.963278;0.000108823
476;5.928747;0.000117829
477;5.932874;0.000116715
478;5.893705;0.000127731
479;5.925475;0.00011872
480;5.89058;0.000128653
481;5.936807;0.000115663
482;5.897476;0.000126626
483;5.992956;0.000101635
484;5.941085;0.000114529
485;5.930005;0.000117488
486;5.952688;0.00011151
487;5.888218;0.000129355
488;5.976871;0.00010547
489;6.083411;8.25257E-05
490;5.969189;0.000107352
491;5.945679;0.000113324
492;5.945759;0.000113303
493;5.930988;0.000117223
494;5.938456;0.000115224
495;6.016322;9.63115E-05
496;6.003384;9.92238E-05
497;6.068653;8.53782E-05
498;6.021126;9.5252E-05
499;5.924256;0.000119054
500;5.999324;0.000100156
501;5.990766;0.000102149
502;5.958319;0.000110073
503;5.991051;0.000102082
504;5.928417;0.000117919
505;5.935788;0.000115934
506;6.008328;9.81007E-05
507;5.954777;0.000110974
508;5.890204;0.000128764
509;5.96279;0.000108946
510;5.962773;0.00010895
511;5.95923;0.000109842
512;5.995788;0.000100975
513;5.983021;0.000103987
514;5.959191;0.000109852
515;5.877642;0.000132543
516;5.955524;0.000110784
517;5.983497;0.000103873
518;5.971414;0.000106804
519;5.94796;0.00011273
520;5.929342;0.000117668
521;5.951937;0.000111703
522;6.018484;9.58332E-05
523;6.046058;8.99377E-05
524;6.027525;9.38588E-05
525;5.908327;0.000123502
526;5.918992;0.000120506
527;5.964218;0.000108588
528;5.895102;0.00012732
529;5.862814;0.000137147
530;5.905431;0.000124328
531;5.915984;0.000121343
532;5.901941;0.000125331
533;5.930428;0.000117374
534;5.902338;0.000125217
535;5.850833;0.000140983
536;5.926891;0.000118334
537;5.919801;0.000120282
538;5.916345;0.000121243
539;5.953392;0.000111329
540;6.006549;9.85033E-05
541;5.931189;0.000117169
542;5.896217;0.000126994
543;5.886366;0.000129907
544;5.896259;0.000126982
545;5.953783;0.000111229
546;5.896507;0.000126909
547;5.805702;0.000156422
548;5.883317;0.000130823
549;5.928138;0.000117995
550;5.861321;0.000137619
551;5.831396;0.000147436
552;5.840208;0.000144475
553;5.792674;0.000161186
554;5.811716;0.000154271
555;5.691673;0.000203389
556;5.281019;0.000523578
557;4.577386;0.002646147
558;3.938234;0.011528319
559;3.115;0.076736149
560;2.063558;0.863857285
561;1.245208;5.68580551
562;0.650013;22.38654127
563;0.291684;51.08765872
564;0.10903;77.7982808
565;0.041174;90.95487891
566;0.02729;93.90960201
567;0.023249;94.78748494
568;0.019608;95.58549642
569;0.018794;95.76482073
570;0.024108;94.60018811
571;0.059967;87.10297729
572;0.177463;66.45642885
573;0.432496;36.94060467
574;1.162288;6.881957717
575;2.140311;0.723917374
576;2.921602;0.119783776
577;3.640115;0.022902611
578;4.270057;0.005369613
579;5.067153;0.000856736
580;5.699834;0.000199603
581;5.802801;0.00015747
582;5.863494;0.000136932
583;5.912706;0.000122263
584;5.937872;0.000115379
585;5.956589;0.000110512
586;5.923497;0.000119262
587;5.892962;0.000127949
588;5.953272;0.00011136
589;5.949289;0.000112386
590;6.001466;9.9663E-05
591;5.934592;0.000116254
592;5.92046;0.000120099
593;5.93126;0.000117149
594;5.90677;0.000123945
595;5.946064;0.000113223
596;5.981166;0.000104432
597;5.965464;0.000108277
598;5.985507;0.000103393
599;5.977232;0.000105382
600;5.977347;0.000105354
601;5.96567;0.000108226
602;5.969459;0.000107285
603;5.969517;0.000107271
604;5.977574;0.000105299
605;5.973542;0.000106282
606;5.942748;0.000114091
607;5.969598;0.000107251
608;5.907312;0.000123791
609;5.924696;0.000118933
610;5.921169;0.000119903
611;5.877665;0.000132536
612;5.946722;0.000113052
613;5.932004;0.000116949
614;5.907586;0.000123713
615;5.911103;0.000122715
616;5.92165;0.000119771
617;5.970215;0.000107099
618;6.007355;9.83207E-05
619;6.029434;9.34471E-05
620;5.978266;0.000105132
621;5.962498;0.000109019
622;5.994759;0.000101214
623;6.007471;9.82945E-05
624;5.954942;0.000110932
625;5.918544;0.00012063
626;5.908183;0.000123543
627;5.94391;0.000113786
628;5.940219;0.000114757
629;5.986741;0.0001031
630;6.020885;9.53048E-05
631;5.970769;0.000106962
632;5.963054;0.000108879
633;5.978869;0.000104986
634;5.970863;0.000106939
635;5.978974;0.000104961
636;5.999655;0.000100079
637;5.983127;0.000103962
638;5.967333;0.000107812
639;5.952035;0.000111677
640;5.937074;0.000115592
641;5.951873;0.000111719
642;5.983282;0.000103925
643;5.963581;0.000108747
644;5.97938;0.000104862
645;5.952187;0.000111638
646;5.97551;0.000105801
647;6.017394;9.6074E-05
648;6.01312;9.70242E-05
649;6.021921;9.50778E-05
650;6.021909;9.50804E-05
651;5.99612;0.000100897
652;5.945112;0.000113472
653;5.930487;0.000117358
654;5.972005;0.000106658
655;5.988263;0.000102739
656;5.988277;0.000102736
657;5.972265;0.000106595
658;5.972172;0.000106617
659;5.938018;0.000115341
660;5.927237;0.00011824
661;5.956713;0.000110481
662;5.988485;0.000102687
663;5.960732;0.000109463
664;5.957004;0.000110407
665;5.949522;0.000112325
666;5.957116;0.000110378
667;5.938537;0.000115203
668;5.942139;0.000114251
669;5.961025;0.000109389
670;5.953629;0.000111268
671;5.97705;0.000105427
672;5.993257;0.000101565
673;6.005778;9.86784E-05
674;5.985087;0.000103493
675;5.950125;0.00011217
676;5.931914;0.000116973
677;5.921439;0.000119829
678;5.911089;0.000122719
679;5.94306;0.000114009
680;5.943005;0.000114024
681;5.961753;0.000109206
682;6.006524;9.8509E-05
683;5.969937;0.000107167
684;5.966108;0.000108117
685;5.962257;0.000109079
686;5.958473;0.000110034
687;5.970073;0.000107134
688;5.925513;0.00011871
689;5.943513;0.00011389
690;5.974199;0.000106121
691;5.978477;0.000105081
692;5.982493;0.000104113
693;6.007457;9.82976E-05
694;6.003055;9.9299E-05
695;5.98239;0.000104138
696;6.007528;9.82816E-05
697;5.986811;0.000103083
698;5.982757;0.00010405
699;6.003488;9.92001E-05
700;5.967265;0.000107829
701;5.983202;0.000103944
702;6.012392;9.7187E-05
703;6.016922;9.61785E-05
704;5.987364;0.000102952
705;5.963771;0.0001087
706;5.960034;0.000109639
707;5.944944;0.000113516
708;5.945163;0.000113458
709;5.960404;0.000109546
710;5.996316;0.000100852
711;6.004629;9.89398E-05
712;5.983954;0.000103764
713;5.964406;0.000108541
714;5.976225;0.000105627
715;5.953037;0.00011142
716;5.917086;0.000121036
717;5.924325;0.000119035
718;5.924452;0.000119
719;5.938812;0.00011513
720;5.953712;0.000111247
721;5.942762;0.000114087
722;5.914684;0.000121707
723;5.866026;0.000136136
724;5.891479;0.000128387
725;5.915073;0.000121598
726;5.891813;0.000128288
727;5.958282;0.000110082
728;5.985652;0.000103359
729;5.981531;0.000104344
730;5.895326;0.000127255
731;5.888999;0.000129122
732;5.882799;0.000130979
733;5.898889;0.000126215
734;5.882888;0.000130952
735;5.886137;0.000129976
736;5.937165;0.000115567
737;5.923037;0.000119389
738;5.994907;0.00010118
739;5.963593;0.000108744
740;5.927134;0.000118268
741;5.944888;0.00011353
742;5.952482;0.000111562
743;5.930729;0.000117293
744;5.934477;0.000116285
745;5.945297;0.000113423
746;5.934757;0.00011621
747;5.999838;0.000100037
748;6.016891;9.61854E-05
749;5.953246;0.000111366
750;5.939021;0.000115074
751;5.953612;0.000111273
752;5.93542;0.000116033
753;5.953756;0.000111236
754;5.957512;0.000110278
755;5.972827;0.000106457
756;5.977079;0.00010542
757;5.961765;0.000109203
758;5.932569;0.000116797
759;5.895313;0.000127259
760;5.958208;0.000110101
761;5.925876;0.000118611
762;5.940245;0.000114751
763;5.919189;0.000120451
764;5.947486;0.000112853
765;5.973883;0.000106198
766;5.947847;0.000112759
767;6.002358;9.94585E-05
768;5.974258;0.000106107
769;5.877474;0.000132595
770;5.919809;0.000120279
771;5.978745;0.000105016
772;5.97139;0.00010681
773;5.956186;0.000110615
774;5.952439;0.000111573
775;5.999378;0.000100143
776;6.024395;9.45377E-05
777;5.983444;0.000103886
778;6.0119;9.72971E-05
779;6.029339;9.34676E-05
780;6.04272;9.06317E-05
781;6.008119;9.81479E-05
782;6.061851;8.67259E-05
783;5.964774;0.000108449
784;5.942722;0.000114098
785;5.904795;0.00012451
786;5.904942;0.000124468
787;5.932474;0.000116822
788;6.039376;9.13322E-05
789;5.969131;0.000107367
790;5.96196;0.000109154
791;5.909303;0.000123224
792;5.926088;0.000118553
793;5.947073;0.000112961
794;6.013733;9.68873E-05
795;5.977502;0.000105317
796;5.896432;0.000126931
797;5.936746;0.000115679
798;5.973616;0.000106263
799;5.955337;0.000110831
800;5.96277;0.000108951
801;6.00623;9.85757E-05
802;5.982281;0.000104164
803;6.058849;8.73275E-05
804;6.01028;9.76607E-05
805;5.903762;0.000124807
806;6.014512;9.67137E-05
807;5.857603;0.000138802
808;6.045343;9.00859E-05
809;5.937703;0.000115424
810;5.971078;0.000106886
811;5.914062;0.000121882
812;5.897652;0.000126575
813;5.917265;0.000120986
814;5.938139;0.000115308
815;6.045766;8.99982E-05
816;5.959655;0.000109735
817;5.94541;0.000113394
818;5.966844;0.000107933
819;5.927485;0.000118172
820;5.904372;0.000124632
821;5.986288;0.000103208
822;5.927042;0.000118293
823;5.978426;0.000105093
824;5.958578;0.000110007
825;5.989844;0.000102366
826;5.920031;0.000120218
827;5.906493;0.000124024
828;5.965789;0.000108196
829;5.943867;0.000113798
830;5.969503;0.000107275
831;5.827204;0.000148866
832;5.953788;0.000111227
833;5.942287;0.000114212
834;5.815372;0.000152978
835;5.927412;0.000118192
836;5.90739;0.000123768
837;5.896656;0.000126866
838;5.827519;0.000148758
839;5.797489;0.000159408
840;5.852444;0.000140461
841;5.784875;0.000164106
842;5.784151;0.00016438
843;5.796976;0.000159597
844;5.842951;0.000143565
845;5.711113;0.000194485
846;5.757893;0.000174625
847;5.71906;0.000190959
848;5.770013;0.000169819
849;5.690036;0.000204157
850;5.867999;0.000135519
851;5.767397;0.000170845
852;5.85833;0.00013857
853;5.739956;0.000181989
854;6.167681;6.79703E-05
855;6.0452332;9.01087E-05
856;5.949344857;0.000112371
857;5.985412857;0.000103416
858;5.847899286;0.000141939
859;5.878420714;0.000132306
860;5.675789857;0.000210965
861;5.733958;0.000184519
862;5.663653286;0.000216944
863;5.727773286;0.000187166
864;5.691277;0.000203574
865;5.826264714;0.000149188
866;5.826336571;0.000149164
867;5.959059429;0.000109886
868;5.927236;0.00011824
869;6.0812435;8.29386E-05
870;5.917685333;0.000120869
871;5.986525667;0.000103151
872;5.8284945;0.000148424
873;5.828410667;0.000148453
874;5.704508167;0.000197466
875;5.768149857;0.000170549
876;5.672978714;0.000212335
877;5.813171429;0.000153755
878;5.681637714;0.000208143
879;5.817093;0.000152373
880;5.699793571;0.000199621
881;5.805995714;0.000156316
882;5.705890143;0.000196838
883;5.801061286;0.000158102
884;5.701923714;0.000198644
885;5.833457429;0.000146738
886;5.74922;0.000178148
887;5.866519429;0.000135982
888;5.776275;0.000167388
889;5.876380571;0.000132929
890;5.798054429;0.000159201
891;5.897192;0.000126709
892;5.785614;0.000163827
893;5.869851429;0.000134942
894;5.807404;0.00015581
895;5.897648429;0.000126576
896;5.889545714;0.00012896
897;5.967871857;0.000107678
898;6.005297143;9.87877E-05
899;6.058164529;8.74652E-05
900;6.090416471;8.12051E-05
901;6.071897882;8.47427E-05
902;6.117841765;7.62357E-05
903;6.150065941;7.07838E-05
904;6.175779588;6.67145E-05
905;6.171853882;6.73203E-05
906;6.175190294;6.68051E-05
907;6.175190294;6.68051E-05
908;6.159779882;6.92182E-05
909;6.143614941;7.18431E-05
910;6.143614941;7.18431E-05
911;6.143614941;7.18431E-05
912;6.140744118;7.23196E-05
913;6.104850941;7.85505E-05
914;6.104850941;7.85505E-05
915;6.091910294;8.09263E-05
916;6.091910294;8.09263E-05
917;6.085850412;8.20634E-05
918;6.130824176;7.39905E-05
919;6.081281059;8.29314E-05
920;6.083108118;8.25832E-05
921;6.119414824;7.596E-05
922;5.985173857;0.000103473
923;6.024431571;9.45297E-05
924;6.009714714;9.77879E-05
925;6.073963;8.43407E-05
926;5.960616;0.000109492
927;6.130481;7.4049E-05
928;6.218654429;6.04429E-05
929;6.250081714;5.62236E-05
930;6.267480143;5.40157E-05
931;6.267532857;5.40091E-05
932;6.118787143;7.60699E-05
933;6.239106143;5.76626E-05
934;6.156410286;6.97573E-05
935;6.068236857;8.54601E-05
936;5.966702286;0.000107969
937;5.890695286;0.000128619
938;5.859720857;0.000138127
939;5.944218286;0.000113706
940;5.938143571;0.000115307
941;5.930575;0.000117334
942;5.845956857;0.000142575
943;5.937427;0.000115498
944;5.941793571;0.000114342
945;5.987432143;0.000102936
946;5.987432143;0.000102936
947;5.993506857;0.000101506
948;5.909096714;0.000123283
949;5.915506714;0.000121477
950;5.857960143;0.000138688
951;5.912202143;0.000122405
952;5.912202143;0.000122405
953;5.921339571;0.000119856
954;5.890776;0.000128595
955;5.982754714;0.000104051
956;6.001039429;9.97609E-05
957;6.068650429;8.53787E-05
958;6.168824857;6.77915E-05
959;6.168824857;6.77915E-05
960;6.159687429;6.92329E-05
961;6.121067571;7.56715E-05
962;6.075662143;8.40113E-05
963;6.135585571;7.31837E-05
964;6.031620571;9.29778E-05
965;5.855595429;0.000139446
966;5.836225286;0.000145806
967;5.836225286;0.000145806
968;5.892224143;0.000128167
969;5.841782571;0.000143952
970;5.746085;0.000179438
971;5.815845857;0.000152811
972;5.835419;0.000146077
973;5.854789143;0.000139705
974;5.854789143;0.000139705
975;5.867973714;0.000135527
976;5.883736286;0.000130696
977;5.885273714;0.000130235
978;5.835974857;0.00014589
979;5.892252429;0.000128159
980;5.995305857;0.000101087
981;5.979252857;0.000104893
982;5.979252857;0.000104893
983;6.098548143;7.96988E-05
984;6.105783286;7.83821E-05
985;6.158511286;6.94207E-05
986;6.139469429;7.25322E-05
987;6.044849714;9.01883E-05
988;5.972043;0.000106649
989;5.919705429;0.000120308
990;5.880494571;0.000131676
991;5.967419571;0.00010779
992;5.919273286;0.000120428
993;5.916551286;0.000121185
994;5.908117571;0.000123561
995;6.024590143;9.44952E-05
996;6.011856429;9.73069E-05
997;5.968223143;0.000107591
998;5.916199143;0.000121283
999;6.076740286;8.3803E-05
1000;6.064229857;8.62522E-05
1001;5.997202429;0.000100646
1002;5.908899857;0.000123339
1003;5.920500571;0.000120088
1004;5.961060571;0.00010938
1005;5.995044857;0.000101147
1006;5.849653286;0.000141367
1007;5.856165143;0.000139263
1008;5.867780286;0.000135588
1009;6.037180286;9.17951E-05
1010;6.078078571;8.35452E-05
1011;6.010215571;9.76752E-05
1012;5.991500286;0.000101976
1013;6.015998429;9.63833E-05
1014;6.043760857;9.04147E-05
1015;6.152191286;7.04383E-05
1016;6.001852714;9.95743E-05
1017;5.949466;0.00011234
1018;5.984924;0.000103532
1019;5.971330571;0.000106824
1020;6.074709857;8.41957E-05
1021;6.031590857;9.29842E-05
1022;5.886792571;0.00012978
1023;5.857217286;0.000138926
1024;5.903577143;0.00012486
1025;5.939055429;0.000115065
1026;5.989403857;0.00010247
1027;5.868947857;0.000135223
1028;5.876230857;0.000132975
1029;5.903191857;0.000124971
1030;5.887833714;0.000129469
1031;5.867290286;0.000135741
1032;5.931013143;0.000117216
1033;5.860754143;0.000137799
1034;5.835743571;0.000145968
1035;5.797544571;0.000159388
1036;5.841290286;0.000144115
1037;5.836776286;0.000145621
1038;5.875918857;0.00013307
1039;5.812196;0.0001541
1040;5.848618857;0.000141704
1041;5.834399571;0.00014642
1042;5.855475;0.000139484
1043;5.850927714;0.000140952
1044;5.960788429;0.000109449
1045;5.89668;0.000126859
1046;5.838989;0.000144881
1047;5.807620286;0.000155733
1048;5.874250571;0.000133582
1049;5.908470571;0.000123461
1050;5.934091286;0.000116388
1051;5.919233143;0.000120439
1052;5.950693286;0.000112023
1053;5.936773;0.000115672
1054;5.960560429;0.000109506
1055;5.960300143;0.000109572
1056;5.956586143;0.000110513
1057;5.876729143;0.000132822
1058;5.908605571;0.000123423
1059;5.941253857;0.000114484
1060;6.012865143;9.70811E-05
1061;5.965797571;0.000108194
1062;5.915779857;0.0001214
1063;5.844954286;0.000142904
1064;5.905467429;0.000124318
1065;5.835654;0.000145998
1066;5.812130857;0.000154124
1067;5.716384714;0.000192139
1068;5.804869714;0.000156722
1069;5.884097571;0.000130588
1070;5.977376714;0.000105347
1071;5.925493714;0.000118715
1072;5.960782286;0.00010945
1073;5.914454;0.000121772
1074;6.039994143;9.12023E-05
1075;5.973007429;0.000106412
1076;5.973007429;0.000106412
1077;6.061535429;8.6789E-05
1078;6.132762286;7.3661E-05
1079;6.081419143;8.2905E-05
1080;6.137310857;7.28936E-05
1081;6.025026714;9.44003E-05
1082;6.116468286;7.64772E-05
1083;6.030683429;9.31787E-05
1084;5.942155429;0.000114247
1085;5.899355857;0.000126079
1086;5.935361143;0.000116048
1087;5.849641;0.000141371
1088;5.934242143;0.000116348
1089;5.825230571;0.000149544
1090;5.835458;0.000146064
1091;5.751024143;0.000177409
1092;5.793823714;0.000160759
1093;5.761445;0.000173203
1094;5.896079857;0.000127034
1095;5.830967286;0.000147582
1096;5.860736143;0.000137805
1097;5.823158429;0.000150259
1098;5.907592286;0.000123711
1099;5.847242429;0.000142154
1100;5.893680571;0.000127738
1101;5.762652;0.000172722
1102;5.851402;0.000140798
1103;5.817858143;0.000152104
1104;5.966543143;0.000108008
1105;5.87699;0.000132743
1106;5.937339857;0.000115521
1107;5.844883;0.000142928
1108;5.986077143;0.000103258
1109;5.875730429;0.000133128
1110;5.966692857;0.000107971
1111;5.829126714;0.000148209
1112;5.902323714;0.000125221
1113;5.893032286;0.000127929
1114;5.985489143;0.000103398
1115;5.844170286;0.000143163
1116;5.909099857;0.000123282
1117;5.830465429;0.000147752
1118;5.975215714;0.000105873
1119;5.922359143;0.000119575
1120;5.978765286;0.000105011
1121;5.863527286;0.000136922
1122;5.938827571;0.000115126
1123;5.851373857;0.000140808
1124;5.927377571;0.000118201
1125;5.813922571;0.000153489
1126;5.827587857;0.000148735
1127;5.675811429;0.000210954
1128;5.876472857;0.000132901
1129;5.801600143;0.000157906
1130;5.908722571;0.000123389
1131;5.798178;0.000159156
1132;5.845012;0.000142885
1133;5.796493429;0.000159774
1134;5.86905;0.000135192
1135;5.677635286;0.00021007
1136;5.773406;0.000168498
1137;5.697132286;0.000200848
1138;5.832995571;0.000146894
1139;5.842376286;0.000143755
1140;5.946442286;0.000113125
1141;5.883757857;0.00013069
1142;6.000544429;9.98747E-05
1143;5.932101714;0.000116923
1144;5.998954714;0.000100241
1145;5.874716143;0.000133439
1146;6.001952143;9.95515E-05
1147;5.951564857;0.000111798
1148;6.011739;9.73332E-05
1149;5.886284429;0.000129932
1150;5.999508714;0.000100113
1151;5.981108714;0.000104446
1152;6.080028571;8.31709E-05
1153;5.864473571;0.000136624
1154;5.914860857;0.000121658
1155;5.841285;0.000144117
1156;5.950126286;0.000112169
1157;5.789132286;0.000162505
1158;5.816953;0.000152422
1159;5.720201143;0.000190458
1160;5.823026429;0.000150305
1161;5.727599857;0.000187241
1162;5.864216571;0.000136705
1163;5.750260857;0.000177721
1164;5.866473286;0.000135996
1165;5.816314143;0.000152646
1166;5.921675;0.000119764
1167;5.813988714;0.000153466
1168;5.884223429;0.00013055
1169;5.780972286;0.000165588
1170;5.900746;0.000125676
1171;5.813337;0.000153696
1172;5.863496143;0.000136932
1173;5.994814;0.000101201
1174;6.116047857;7.65512E-05
1175;6.041549571;9.08763E-05
1176;6.117173143;7.63531E-05
1177;6.000211714;9.99513E-05
1178;6.087620714;8.17296E-05
1179;5.972980429;0.000106419
1180;5.837002571;0.000145545
1181;5.715210143;0.000192659
1182;5.814900286;0.000153144
1183;5.705590571;0.000196974
1184;5.822552;0.000150469
1185;5.719633857;0.000190707
1186;5.834274143;0.000146462
1187;5.830325143;0.0001478
1188;5.93857;0.000115194
1189;5.808850714;0.000155292
1190;5.917362571;0.000120959
1191;5.828151714;0.000148542
1192;5.931069857;0.000117201
1193;5.825625;0.000149408
1194;5.843669714;0.000143328
1195;5.722354429;0.000189516
1196;5.852073714;0.000140581
1197;5.8577984;0.00013874
1198;5.7383698;0.000182654
1199;5.667883333;0.000214841
1200;5.766767571;0.000171093
