Wavelength (nm),Relative Sensitivity
350,0.12
375,0.22
400,0.35
425,0.48
450,0.60
475,0.70
500,0.80
525,0.88
550,0.92
575,0.97
600,1.00
625,1.03
650,1.05
675,1.02
700,1.00
725,0.90
750,0.82
775,0.70
800,0.60
825,0.48
850,0.38
875,0.30
900,0.22
925,0.16
950,0.12
975,0.08
1000,0.05
1025,0.03
1050,0.015
1075,0.007
1100,0.0
